Time (s),Current (A),Voltage (V)
0.3418530000003557,3.010462e-07,4.990211
0.8464705999999751,2.857612e-07,4.990205
1.3593699000002744,2.854939e-07,4.990205
1.864209700000174,2.869136e-07,4.990204
2.3668414000003395,2.892053e-07,4.990206
2.8692783000001327,2.910535e-07,4.990204
3.373844900000222,2.944718e-07,4.990211
3.8754579000001286,2.97206e-07,4.990208
4.379346500000338,3.017639e-07,4.990212
4.882917700000235,3.062711e-07,4.990215
5.388559400000304,3.099769e-07,4.990215
5.902231700000357,3.133607e-07,4.990213
6.40928329999997,3.165658e-07,4.990207
6.910029300000133,3.185272e-07,4.990207
7.415611100000206,3.214602e-07,4.99021
7.919352900000376,3.249488e-07,4.990215
8.435217800000373,3.285339e-07,4.990209
8.9355415,3.316941e-07,4.990204
9.45044390000021,3.345509e-07,4.990212
9.956448700000237,3.378537e-07,4.990209
10.461706900000081,3.40099e-07,4.990204
10.963799200000267,3.429759e-07,4.990209
11.466356900000392,3.461047e-07,4.990208
11.966755700000249,3.488967e-07,4.990216
12.467796700000235,3.512736e-07,4.990206
12.971118800000113,3.532358e-07,4.990216
13.475510600000234,3.544293e-07,4.990212
13.975822300000345,3.575034e-07,4.990205
14.477723400000286,3.601964e-07,4.990204
14.98338190000004,3.603654e-07,4.990205
15.485380500000247,3.606034e-07,4.990201
15.990949400000318,3.62161e-07,4.990205
16.49552440000025,3.650743e-07,4.990204
17.00281440000026,3.684635e-07,4.990212
17.503740000000107,3.718114e-07,4.990205
18.009455600000365,3.743898e-07,4.99021
18.519638600000235,3.775923e-07,4.990224
19.030219600000237,3.79476e-07,4.990201
19.536001800000122,3.819131e-07,4.990204
20.05117730000029,3.844944e-07,4.990204
20.55779419999999,3.858941e-07,4.990207
21.059813400000166,3.866539e-07,4.990205
21.560590400000365,3.868095e-07,4.990195
22.062730100000408,3.895436e-07,4.990195
22.578363699999954,3.905745e-07,4.990209
23.093267300000207,3.915787e-07,4.990198
23.59438110000019,3.963438e-07,4.990205
24.094333000000006,4.001633e-07,4.990196
24.595649300000332,4.019483e-07,4.990202
25.09591440000031,4.038503e-07,4.99021
25.59827230000019,4.048085e-07,4.990197
26.11217600000009,4.056832e-07,4.990211
26.626509200000328,4.083902e-07,4.990201
27.12867950000009,4.116054e-07,4.990205
27.629145900000367,4.139559e-07,4.990202
28.132996900000308,4.161779e-07,4.990207
28.635331000000406,4.180519e-07,4.990205
29.142921900000147,4.200315e-07,4.990207
29.645901000000322,4.226639e-07,4.990211
30.147471900000255,4.242944e-07,4.990204
30.649015599999984,4.260966e-07,4.990202
31.151624900000115,4.277446e-07,4.990194
31.65349060000017,4.287842e-07,4.990204
32.15527340000017,4.299241e-07,4.990207
32.65807530000029,4.311551e-07,4.990205
33.16080260000035,4.315845e-07,4.990207
33.67570360000036,4.300938e-07,4.990196
34.17960970000013,4.318177e-07,4.990201
34.67917490000036,4.34498e-07,4.990209
35.19235340000023,4.378547e-07,4.990207
35.693654700000025,4.385177e-07,4.990205
36.20782240000017,4.40438e-07,4.990198
36.71001870000009,4.401825e-07,4.9902
37.213269800000035,4.408263e-07,4.990205
37.71667750000006,4.396358e-07,4.990207
38.21906480000007,4.410415e-07,4.9902
38.72281720000001,4.417494e-07,4.990203
39.225277000000006,4.426712e-07,4.990203
39.72552489999998,4.468388e-07,4.990205
40.22714690000021,4.485449e-07,4.990202
40.74127010000029,4.524656e-07,4.990201
41.24155830000018,4.553594e-07,4.990205
41.75664090000009,4.573717e-07,4.990205
42.272045400000025,4.579018e-07,4.990209
42.773911800000405,4.575438e-07,4.990209
43.27504859999999,4.591573e-07,4.990207
43.778888800000004,4.600909e-07,4.990205
44.284757100000206,4.608021e-07,4.990205
44.78979150000032,4.622122e-07,4.990201
45.2911237000003,4.617123e-07,4.990199
45.79341450000038,4.623756e-07,4.990203
46.293860100000074,4.617054e-07,4.990203
46.797913000000335,4.643357e-07,4.990206
47.29780460000029,4.686939e-07,4.990212
47.798704499999985,4.72112e-07,4.990203
48.301755400000275,4.750287e-07,4.990209
48.80284180000035,4.762305e-07,4.990205
49.30510090000007,4.730282e-07,4.990204
49.80790130000014,4.717893e-07,4.990209
50.31487200000038,4.738065e-07,4.990202
50.81910770000013,4.730684e-07,4.990198
51.334902800000236,4.735734e-07,4.990198
51.84909540000035,4.742498e-07,4.990195
52.3519397,4.743757e-07,4.9902
52.86412280000013,4.754122e-07,4.990196
53.367684700000154,4.755902e-07,4.990201
53.87288750000016,4.767428e-07,4.990197
54.386135000000195,4.784366e-07,4.990201
54.89452370000026,4.796408e-07,4.990205
55.39517730000034,4.781137e-07,4.9902
55.90731589999996,4.78622e-07,4.990204
56.409539400000085,4.802305e-07,4.990208
56.916925900000024,4.819735e-07,4.990199
57.432028700000046,4.803034e-07,4.99019
57.93597660000023,4.823401e-07,4.990198
58.442425600000206,4.866662e-07,4.990195
58.96940710000035,4.863604e-07,4.990198
59.47780610000018,4.816396e-07,4.990198
59.99175439999999,4.821065e-07,4.990201
60.50745280000001,4.834199e-07,4.990198
61.307457500000055,4.338747e-05,4.990177
61.813965499999995,5.803489e-05,4.990176
62.33215580000024,7.131773e-05,4.990165
62.84024380000028,8.329132e-05,4.990168
63.346348300000045,9.458121e-05,4.990169
63.9922547000001,0.0001080309,4.990162
64.36415870000019,0.0001160572,4.990161
64.87291460000006,0.0001262058,4.990154
65.37793370000009,0.0001356485,4.990144
65.8836653000003,0.0001447087,4.990147
66.38779460000023,0.0001532696,4.990142
66.89059429999998,0.0001612784,4.990144
67.39266870000029,0.0001689575,4.990139
67.89290000000028,0.0001762069,4.99013
68.39662850000013,0.000183153,4.99014
68.89751440000009,0.0001898179,4.990127
69.39874060000011,0.0001961273,4.990121
69.90449380000018,0.0002021733,4.990122
70.40566260000014,0.0002080609,4.990118
70.90687040000012,0.0002135927,4.990127
71.41118219999998,0.0002189223,4.990118
71.91251940000029,0.000223949,4.99012
72.4276133000003,0.0002289385,4.99012
72.93339620000006,0.000233535,4.990114
73.43722890000026,0.0002379347,4.990113
73.94208270000036,0.000242216,4.990128
74.44603030000007,0.0002463204,4.990113
74.95083109999996,0.0002501727,4.990122
75.45228580000003,0.0002539951,4.990105
75.95627590000004,0.0002575203,4.990102
76.45825690000038,0.0002610032,4.990106
76.95994310000015,0.000264359,4.990107
77.46160320000035,0.0002675638,4.990108
77.97714459999997,0.0002707662,4.990099
78.48367780000035,0.0002738395,4.990099
78.98897410000018,0.000276753,4.990095
79.49079200000006,0.0002796044,4.990098
80.00385430000006,0.0002824898,4.990092
80.50856730000032,0.0002851172,4.990101
81.02244560000008,0.0002877045,4.990097
81.53604750000022,0.0002902246,4.990099
82.03841210000019,0.000292615,4.990094
82.54425370000035,0.0002949425,4.990097
83.0469919000002,0.0002971889,4.990089
83.55017790000011,0.0002993121,4.990101
84.05349410000008,0.0003014918,4.990093
84.5683140000001,0.0003035848,4.990095
85.08299990000023,0.0003055039,4.990085
85.58596410000018,0.0003073876,4.990089
86.09056630000032,0.0003091443,4.99009
86.59357650000038,0.0003109277,4.990095
87.09992460000012,0.0003125895,4.990093
87.61455070000011,0.0003141475,4.990086
88.12113360000012,0.0003158082,4.990089
88.62205620000032,0.0003171228,4.990086
89.12455339999997,0.0003186374,4.990089
89.63023229999999,0.0003199592,4.990086
90.1336253000004,0.000321354,4.990082
90.63591290000022,0.0003225188,4.990086
91.13918960000001,0.0002797822,4.990091
91.7906366000002,1.08375e-06,4.990209
92.48486320000029,9.647596e-07,4.990209
93.05593230000022,9.188989e-07,4.990203
93.61770920000026,8.853477e-07,4.990206
94.16984620000039,8.586711e-07,4.990205
94.7197855000004,8.383294e-07,4.990206
95.27495520000002,8.17943e-07,4.990199
95.83125180000025,7.968409e-07,4.990202
96.38627600000018,7.753285e-07,4.990195
96.94578200000024,7.520649e-07,4.990199
97.51752890000034,7.274536e-07,4.990185
98.0901874000001,7.070978e-07,4.990199
98.6471733000003,6.956112e-07,4.990201
99.20549600000004,6.86275e-07,4.9902
99.7657706,6.796024e-07,4.9902
100.3341445000001,6.751591e-07,4.990197
100.90771630000017,6.720613e-07,4.9902
101.47520740000027,6.696555e-07,4.990201
102.03862740000022,6.670232e-07,4.990212
102.60005500000034,6.650135e-07,4.990205
103.16999480000004,6.635051e-07,4.990198
103.76176150000038,6.625277e-07,4.990195
104.35413120000021,6.618117e-07,4.990201
104.9256489000004,6.607781e-07,4.990195
105.51469980000002,6.601431e-07,4.990198
106.08752249999998,6.598679e-07,4.9902
106.66230930000029,6.593501e-07,4.990195
107.2467330000004,6.592598e-07,4.9902
107.82103180000013,6.597069e-07,4.990191
108.40635810000003,6.603148e-07,4.990193
109.02114440000014,6.608068e-07,4.990205
109.59434460000011,6.612433e-07,4.990201
110.17207320000034,6.618874e-07,4.990201
110.77444630000036,6.621756e-07,4.990202
111.37877720000006,6.621667e-07,4.990195
112.0145163000002,6.617374e-07,4.990193
112.64057900000034,6.625789e-07,4.990203
113.23691710000003,6.633813e-07,4.990205
113.81694060000018,6.640305e-07,4.990198
114.39899890000015,6.64963e-07,4.990201
114.97967370000015,6.652133e-07,4.990194
115.62429550000024,6.656633e-07,4.990192
116.22278740000002,6.664519e-07,4.990194
116.80930780000017,6.674345e-07,4.990194
117.42228390000037,6.683545e-07,4.990198
118.01770490000035,6.688111e-07,4.990184
118.62832720000006,6.69536e-07,4.990195
119.21332480000001,6.703908e-07,4.99019
119.85518320000028,6.713949e-07,4.990198
120.4956314000001,6.727909e-07,4.990198
121.08246750000035,6.734336e-07,4.990202
121.68767990000015,6.747588e-07,4.990201
122.29509250000001,6.755309e-07,4.990194
122.88996940000015,6.761981e-07,4.990199
123.48751519999996,6.762488e-07,4.990195
124.08388850000028,6.770583e-07,4.990201
124.67874830000028,6.77115e-07,4.99019
125.27678980000019,6.780764e-07,4.990197
125.8727270000004,6.791573e-07,4.990199
126.47286770000028,6.804116e-07,4.99019
127.07501500000035,6.808987e-07,4.990197
127.67440110000007,6.826957e-07,4.990191
128.28122140000005,6.841862e-07,4.990192
128.88522090000015,6.853747e-07,4.990189
129.48944900000015,6.862253e-07,4.990194
130.09779180000032,6.874174e-07,4.990196
130.69812460000003,6.886718e-07,4.990194
131.3063076000003,6.899103e-07,4.990201
131.91033510000034,6.90975e-07,4.990201
132.51635650000026,6.922666e-07,4.990219
133.1230440000004,6.9355e-07,4.9902
133.7436190000003,6.948376e-07,4.990211
134.37879470000007,6.960049e-07,4.990205
134.99491970000008,6.974379e-07,4.990199
135.61890300000005,6.986617e-07,4.990205
136.24595660000023,6.998729e-07,4.990211
136.85841300000038,7.010217e-07,4.990198
137.4752684,7.021276e-07,4.990204
138.09263380000039,7.028983e-07,4.990194
138.70550230000026,7.039736e-07,4.990191
139.34469860000036,7.053376e-07,4.990198
139.9740895,7.063329e-07,4.990196
140.58990350000022,7.070354e-07,4.990197
141.21207520000007,7.082657e-07,4.99019
141.8346200000001,7.091144e-07,4.990193
142.46003470000005,7.093236e-07,4.990192
143.09517589999996,7.106347e-07,4.990197
143.72233570000026,7.123488e-07,4.990192
144.34487260000014,7.131425e-07,4.990197
144.96805870000026,7.128521e-07,4.990193
145.59407650000003,7.130585e-07,4.990191
146.22300059999998,7.133643e-07,4.99019
146.84949170000027,7.145042e-07,4.990197
147.47536330000003,7.149737e-07,4.990201
148.1058138000003,7.15398e-07,4.990194
148.74504030000026,7.173161e-07,4.990205
149.37407520000033,7.190621e-07,4.990202
150.01262290000022,7.200168e-07,4.990198
